Potential (V),Current (µA)
-0.199853,-0.013999938000000002
-0.19877799999999998,-0.027999876000000003
-0.197704,-0.027999876000000003
-0.19663,-0.006999969000000001
-0.19555499999999998,-0.013999938000000002
-0.194481,-0.013999938000000002
-0.193406,0.0
-0.192332,-0.0034999840000000003
-0.19125699999999998,-0.0034999840000000003
-0.190183,-0.0017499920000000001
-0.189108,-0.0017499920000000001
-0.18803399999999998,-0.0017499920000000001
-0.186959,-0.0017499920000000001
-0.185885,-0.0043749800000000005
-0.18481,0.0008749960000000001
-0.18373599999999998,-0.0008749960000000001
-0.182661,-0.006999969000000001
-0.181587,0.003937482000000001
-0.18051199999999998,0.0
-0.179438,-0.003937482000000001
-0.178363,0.0026249880000000004
-0.177289,0.0008749960000000001
-0.17621399999999998,-0.00032812300000000004
-0.17514,-0.00021874900000000002
-0.174065,-0.0009183950000000001
-0.172991,0.000979995
-0.17191599999999999,-0.00034719800000000006
-0.170842,-0.0007783960000000001
-0.169768,0.000946395
-0.16869299999999998,-0.00032479800000000006
-0.167619,-0.00020159900000000003
-0.166544,0.0005263970000000001
-0.16547,-0.00038079800000000006
-0.16439499999999999,0.000520797
-0.163321,-3.9199832000000005e-05
-0.162246,-0.0005543970000000001
-0.16117199999999998,0.000923995
-0.160097,-0.00031919800000000003
-0.159023,-0.0007951960000000001
-0.157948,0.001024795
-0.15687399999999999,-0.000335998
-0.155799,-0.000739196
-0.154725,0.000923995
-0.15364999999999998,-0.000330398
-0.152576,-0.000139999
-0.151501,0.00048159700000000006
-0.150427,-0.000391998
-0.14935199999999998,0.0005711970000000001
-0.148278,-7.839966400000001e-05
-0.147203,-0.0005711970000000001
-0.14612899999999998,0.0009351950000000001
-0.145054,-0.000330398
-0.14398,-0.000811996
-0.142905,0.0010303950000000001
-0.14183099999999998,-0.000330398
-0.140757,-0.0007111960000000001
-0.139682,0.0009071960000000001
-0.13860799999999998,-0.00032479800000000006
-0.137533,-7.839966400000001e-05
-0.136459,0.000436798
-0.135384,-0.00040319800000000007
-0.13430999999999998,0.000610397
-0.133235,-0.00010639900000000001
-0.132161,-0.000587997
-0.13108599999999998,0.0009519950000000001
-0.130012,-0.000330398
-0.128937,-0.0008231960000000001
-0.127863,0.0010303950000000001
-0.12678799999999998,-0.000330398
-0.125714,-0.0006831970000000001
-0.124639,0.0008847960000000001
-0.123565,-0.000330398
-0.12248999999999999,-2.2399902000000004e-05
-0.121416,0.00038639800000000004
-0.12034099999999999,-0.000414398
-0.119267,0.0006495970000000001
-0.11819199999999999,-0.000139999
-0.117118,-0.000610397
-0.116043,0.000963195
-0.11496899999999999,-0.000335998
-0.113894,-0.000828796
-0.11281999999999999,0.0010303950000000001
-0.111746,-0.00032479800000000006
-0.11067099999999999,-0.0006495970000000001
-0.109597,0.0008567960000000001
-0.108522,-0.000335998
-0.107448,3.3599856e-05
-0.106373,0.00034719800000000006
-0.10529899999999999,-0.00042559800000000007
-0.104224,0.0006831970000000001
-0.10314999999999999,-0.000167999
-0.102075,-0.000627197
-0.101001,0.0009743950000000001
-0.099926736,-0.00034159800000000003
-0.098852256,-0.000834396
-0.09777777600000001,0.001024795
-0.09670329600000001,-0.00032479800000000006
-0.095628816,-0.0006159970000000001
-0.094554336,0.000828796
-0.093479848,-0.00034159800000000003
-0.092405368,9.5199592e-05
-0.09133089600000001,0.000296798
-0.09025640800000001,-0.00043119800000000004
-0.08918192800000001,0.000716796
-0.088107448,-0.00019039900000000003
-0.087032968,-0.0006495970000000001
-0.08595848,0.000979995
-0.084884,-0.00034159800000000003
-0.08380952800000001,-0.0008399960000000001
-0.08273504000000001,0.001024795
-0.08166056000000001,-0.00032479800000000006
-0.08058607200000001,-0.0005711970000000001
-0.0795116,0.000800796
-0.07843712,-0.000335998
-0.077362632,0.000145599
-0.07628816000000001,0.000257598
-0.07521367200000001,-0.00044239800000000004
-0.074139192,0.000744796
-0.073064712,-0.00021279900000000003
-0.071990232,-0.000671997
-0.070915752,0.0009855950000000001
-0.069841264,-0.00034159800000000003
-0.068766784,-0.0008399960000000001
-0.067692312,0.001019195
-0.066617824,-0.00032479800000000006
-0.065543348,-0.000531997
-0.06446886,0.0007727960000000001
-0.063394384,-0.00034719800000000006
-0.062319900000000004,0.000195999
-0.06124542,0.000218399
-0.060170940000000006,-0.00045919700000000006
-0.05909646,0.0007727960000000001
-0.058021976,-0.00023519800000000002
-0.056947496,-0.0006831970000000001
-0.055873016000000005,0.0009967950000000002
-0.054798532000000004,-0.00034159800000000003
-0.053724056000000006,-0.0008399960000000001
-0.052649572000000006,0.0010135950000000002
-0.051575092,-0.00032479800000000006
-0.050500608,-0.00048719700000000003
-0.049426128,0.000744796
-0.048351648000000004,-0.00035279800000000003
-0.047277168,0.000251998
-0.046202684,0.00017359900000000003
-0.045128204000000005,-0.000470397
-0.044053724,0.0007951960000000001
-0.04297924,-0.000251998
-0.041904764000000004,-0.0007055960000000001
-0.040830280000000004,0.0010023950000000001
-0.0397558,-0.00034159800000000003
-0.038681316,-0.000834396
-0.037606836000000005,0.001007995
-0.036532356,-0.00032479800000000006
-0.035457876,-0.00044239800000000004
-0.034383392,0.0007111960000000001
-0.033308912,-0.00035279800000000003
-0.03223443,0.000296798
-0.031159950000000002,0.00013439900000000003
-0.030085470000000003,-0.00048159700000000006
-0.029010988,0.0008231960000000001
-0.027936508000000002,-0.00026879800000000005
-0.026862028000000003,-0.000716796
-0.025787546,0.001007995
-0.024713064,-0.00034159800000000003
-0.023638584,-0.0008231960000000001
-0.022564102000000003,0.0009967950000000002
-0.02148962,-0.00032479800000000006
-0.020415140000000002,-0.00040319800000000007
-0.019340658,0.000677597
-0.018266178,-0.00036399800000000003
-0.017191696,0.00034719800000000006
-0.016117215,0.00010639900000000001
-0.015042735000000002,-0.000498397
-0.013968254000000001,0.000845596
-0.012893773,-0.000279998
-0.011819292,-0.0007279960000000001
-0.01074481,0.0010135950000000002
-0.009670329,-0.00034159800000000003
-0.008595848,-0.000817596
-0.007521367,0.0009855950000000001
-0.006446886000000001,-0.00032479800000000006
-0.005372405,-0.000358398
-0.004297924,0.0006495970000000001
-0.0032234430000000003,-0.00036399800000000003
-0.002148962,0.00038079800000000006
-0.001074481,6.7199712e-05
0.0,-0.0005095970000000001
0.001074481,0.0008623960000000001
0.002148962,-0.000291198
0.0032234430000000003,-0.0007503960000000001
0.004297924,0.001019195
0.005372405,-0.00034159800000000003
0.006446886000000001,-0.0008063960000000001
0.007521367,0.000979995
0.008595848,-0.00032479800000000006
0.009670329,-0.000313598
0.01074481,0.0006159970000000001
0.011819292,-0.000369598
0.012893773,0.00043119800000000004
0.013968254000000001,4.479980400000001e-05
0.015042735000000002,-0.000515197
0.016117215,0.0008903960000000001
0.017191696,-0.000291198
0.018266178,-0.000755996
0.019340658,0.0010471950000000001
0.020415140000000002,-0.00030239800000000005
0.02148962,-0.0007615960000000001
0.022564102000000003,0.0010303950000000001
0.023638584,-0.000279998
0.024713064,-0.000223999
0.025787546,0.0006495970000000001
0.026862028000000003,-0.00032479800000000006
0.027936508000000002,0.0005487970000000001
0.029010988,9.5199592e-05
0.030085470000000003,-0.00045359800000000004
0.031159950000000002,0.0010135950000000002
0.03223443,-0.000223999
0.033308912,-0.000716796
0.034383392,0.0011199950000000001
0.035457876,-0.000296798
0.036532356,-0.0007615960000000001
0.037606836000000005,0.001024795
0.038681316,-0.000296798
0.0397558,-0.000195999
0.040830280000000004,0.000599197
0.041904764000000004,-0.00038079800000000006
0.04297924,0.000543197
0.044053724,1.6799928e-05
0.045128204000000005,-0.000515197
0.046202684,0.0009855950000000001
0.047277168,-0.000330398
0.048351648000000004,-0.0008399960000000001
0.049426128,0.001052795
0.050500608,-0.00038639800000000004
0.051575092,-0.000834396
0.052649572000000006,0.0009575950000000001
0.053724056000000006,-0.000369598
0.054798532000000004,-0.00021279900000000003
0.055873016000000005,0.0004927970000000001
0.056947496,-0.00034159800000000003
0.058021976,0.0007111960000000001
0.05909646,6.159973199999999e-05
0.060170940000000006,-0.0005095970000000001
0.06124542,0.001024795
0.062319900000000004,-0.000313598
0.063394384,-0.000845596
0.06446886,0.0010023950000000001
0.065543348,-0.00041999800000000004
0.066617824,-0.0008231960000000001
0.067692312,0.0009015960000000001
0.068766784,-0.00038639800000000004
0.069841264,-0.000195999
0.070915752,0.00046479700000000003
0.071990232,-0.00044239800000000004
0.073064712,0.000537597
0.074139192,-8.3999632e-05
0.07521367200000001,-0.0006159970000000001
0.07628816000000001,0.0009351950000000001
0.077362632,-0.00034159800000000003
0.07843712,-0.000845596
0.0795116,0.001035995
0.08058607200000001,-0.00034719800000000006
0.08166056000000001,-0.0007503960000000001
0.08273504000000001,0.0009295950000000001
0.08380952800000001,-0.00034159800000000003
0.084884,-0.000139999
0.08595848,0.000537597
0.087032968,-0.000470397
0.088107448,0.0006663970000000001
0.08918192800000001,-5.0399780000000004e-05
0.09025640800000001,-0.0006495970000000001
0.09133089600000001,0.0011255950000000003
0.092405368,-0.00026879800000000005
0.093479848,-0.000834396
0.094554336,0.0013159940000000002
0.095628816,-0.00013439900000000003
0.09670329600000001,-0.0006047970000000001
0.09777777600000001,0.001097595
0.098852256,-0.000330398
0.099926736,-3.9199832000000005e-05
0.101001,0.0004759970000000001
0.102075,-0.00048719700000000003
0.10314999999999999,0.0006831970000000001
0.104224,-0.00011759900000000001
0.10529899999999999,-0.000688796
0.106373,0.001035995
0.107448,-0.00038639800000000004
0.108522,-0.0009519950000000001
0.109597,0.0010863950000000002
0.11067099999999999,-0.000414398
0.111746,-0.0007727960000000001
0.11281999999999999,0.0009071960000000001
0.113894,-0.000414398
0.11496899999999999,-3.3599856e-05
0.116043,0.000369598
0.117118,-0.000503997
0.11819199999999999,0.000677597
0.119267,-0.00019039900000000003
0.12034099999999999,-0.0007111960000000001
0.121416,0.000991195
0.12248999999999999,-0.00040319800000000007
0.123565,-0.0009519950000000001
0.124639,0.0010135950000000002
0.125714,-0.000313598
0.12678799999999998,-0.0006383970000000001
0.127863,0.0009183950000000001
0.128937,-0.00035279800000000003
0.130012,5.5999756000000005e-05
0.13108599999999998,0.00035279800000000003
0.132161,-0.00048159700000000006
0.133235,0.0006943960000000001
0.13430999999999998,-0.00020159900000000003
0.135384,-0.0007111960000000001
0.136459,0.000979995
0.137533,-0.00038639800000000004
0.13860799999999998,-0.000912796
0.139682,0.0010471950000000001
0.140757,-0.000369598
0.14183099999999998,-0.000655197
0.142905,0.0008399960000000001
0.14398,-0.00038639800000000004
0.145054,8.3999632e-05
0.14612899999999998,0.000291198
0.147203,-0.00048719700000000003
0.148278,0.0007335960000000001
0.14935199999999998,-0.000207199
0.150427,-0.0007111960000000001
0.151501,0.001019195
0.152576,-0.00036399800000000003
0.15364999999999998,-0.000912796
0.154725,0.001080795
0.155799,-0.000369598
0.15687399999999999,-0.000643997
0.157948,0.0009071960000000001
0.159023,-0.00045359800000000004
0.160097,0.00020159900000000003
0.16117199999999998,0.000279998
0.162246,-0.0005711970000000001
0.163321,0.0008791960000000001
0.16439499999999999,-0.00024639800000000005
0.16547,-0.000789596
0.166544,0.0011535940000000002
0.167619,-0.00040319800000000007
0.16869299999999998,-0.0009519950000000001
0.169768,0.0011703940000000002
0.170842,-0.00040319800000000007
0.17191599999999999,-0.000565597
0.172991,0.000873596
0.174065,-0.00044239800000000004
0.17514,0.000263198
0.17621399999999998,0.00024079800000000002
0.177289,-0.000559997
0.178363,0.0009071960000000001
0.179438,-0.000263198
0.18051199999999998,-0.0007783960000000001
0.181587,0.0011591940000000001
0.182661,-0.000391998
0.18373599999999998,-0.000923995
0.18481,0.001164794
0.185885,-0.000391998
0.186959,-0.0005095970000000001
0.18803399999999998,0.0008399960000000001
0.189108,-0.00042559800000000007
0.190183,0.00031919800000000003
0.19125699999999998,0.00019039900000000003
0.192332,-0.0005543970000000001
0.193406,0.0009295950000000001
0.194481,-0.00030239800000000005
0.19555499999999998,-0.000800796
0.19663,0.0011367950000000001
0.197704,-0.00041999800000000004
0.19877799999999998,-0.0009295950000000001
0.199853,0.0011031950000000002
0.200927,-0.00043119800000000004
0.202002,-0.0004927970000000001
0.20307599999999998,0.0007279960000000001
0.204151,-0.00048719700000000003
0.205225,0.00031919800000000003
0.20629999999999998,6.159973199999999e-05
0.207374,-0.000627197
0.208449,0.0008847960000000001
0.209523,-0.00040319800000000007
0.21059799999999998,-0.000873596
0.211672,0.001063995
0.212747,-0.000515197
0.21382099999999998,-0.0009519950000000001
0.214896,0.001007995
0.21597,-0.0004759970000000001
0.217045,-0.00043119800000000004
0.21811899999999998,0.000643997
0.219194,-0.00048159700000000006
0.220268,0.000408798
0.22134299999999998,2.2399902000000004e-05
0.222417,-0.0005767970000000001
0.223492,0.0009575950000000001
0.224566,-0.00036399800000000003
0.22564099999999998,-0.0007951960000000001
0.226715,0.0011031950000000002
0.227789,-0.00041999800000000004
0.22886399999999998,-0.0008511960000000001
0.22993799999999998,0.001019195
0.231013,-0.00040319800000000007
0.232087,-0.00032479800000000006
0.23316199999999998,0.0006383970000000001
0.234236,-0.00041999800000000004
0.235311,0.0004927970000000001
0.23638499999999998,5.5999750000000005e-06
0.23745999999999998,-0.000543197
0.238534,0.0009743950000000001
0.239609,-0.000369598
0.24068299999999998,-0.000789596
0.241758,0.0010919950000000001
0.242832,-0.000408798
0.24390699999999998,-0.0008231960000000001
0.24498099999999998,0.0010135950000000002
0.246056,-0.00038639800000000004
0.24713,-0.000274398
0.24820499999999998,0.0005711970000000001
0.249279,-0.0004759970000000001
0.25035399999999997,0.000414398
0.251428,-0.000139999
0.252503,-0.0006943960000000001
0.253577,0.000845596
0.254652,-0.0004927970000000001
0.255726,-0.0009295950000000001
0.2568,0.0009575950000000001
0.25787499999999997,-0.00048719700000000003
0.258949,-0.000811996
0.260024,0.0010471950000000001
0.261098,-0.000263198
0.262173,-7.839966400000001e-05
0.263247,0.0007279960000000001
0.264322,-0.00023519800000000002
0.26539599999999997,0.0007503960000000001
0.266471,0.00010639900000000001
0.267545,-0.00041999800000000004
0.26861999999999997,0.0011423950000000003
0.269694,-0.000313598
0.270769,-0.0008231960000000001
0.271843,0.0010303950000000001
0.272918,-0.00044239800000000004
0.273992,-0.0007951960000000001
0.275067,0.000968795
0.27614099999999997,-0.00036399800000000003
0.27721599999999996,-0.000156799
0.27829,0.000531997
0.279365,-0.000414398
0.280439,0.0006047970000000001
0.281514,-7.839966400000001e-05
0.282588,-0.000582397
0.283663,0.0010023950000000001
0.28473699999999996,-0.000391998
0.285811,-0.000828796
0.286886,0.001080795
0.28796,-0.00039759800000000004
0.289035,-0.0007503960000000001
0.290109,0.000946395
0.291184,-0.00040319800000000007
0.29225799999999996,-0.00015119900000000003
0.293333,0.00043119800000000004
0.294407,-0.000470397
0.29548199999999997,0.0006047970000000001
0.296556,-0.00013439900000000003
0.297631,-0.000610397
0.298705,0.0010303950000000001
0.29978,-0.000369598
0.300854,-0.0008063960000000001
0.301929,0.0011199950000000001
0.30300299999999997,-0.00036399800000000003
0.30407799999999996,-0.0007055960000000001
0.305152,0.000946395
0.30622699999999997,-0.00039759800000000004
0.307301,-7.839966400000001e-05
0.308376,0.000414398
0.30945,-0.00045359800000000004
0.310525,0.000671997
0.31159899999999996,-0.00016239900000000003
0.312673,-0.000632797
0.31374799999999997,0.001024795
0.314822,-0.000408798
0.315897,-0.0008567960000000001
0.316971,0.001080795
0.318046,-0.00040319800000000007
0.31911999999999996,-0.0007055960000000001
0.320195,0.000912796
0.32126899999999997,-0.000391998
0.32234399999999996,0.0
0.323418,0.00039759800000000004
0.324493,-0.000447998
0.325567,0.000722396
0.326642,-0.00017359900000000003
0.327716,-0.000632797
0.328791,0.001052795
0.32986499999999996,-0.00039759800000000004
0.33094,-0.0008567960000000001
0.332014,0.0010863950000000002
0.33308899999999997,-0.00039759800000000004
0.334163,-0.000677597
0.335238,0.0008847960000000001
0.336312,-0.00039759800000000004
0.337387,4.479980400000001e-05
0.338461,0.000335998
0.339536,-0.0004927970000000001
0.34060999999999997,0.000744796
0.341684,-0.000195999
0.342759,-0.0006383970000000001
0.343833,0.001058395
0.344908,-0.000391998
0.345982,-0.0008567960000000001
0.347057,0.001080795
0.34813099999999997,-0.00039759800000000004
0.34920599999999996,-0.0006383970000000001
0.35028,0.0008511960000000001
0.351355,-0.00040319800000000007
0.352429,0.00010079900000000001
0.353504,0.000313598
0.354578,-0.00046479700000000003
0.355653,0.000800796
0.35672699999999996,-0.000167999
0.357802,-0.0006215970000000001
0.358876,0.0010863950000000002
0.35995099999999997,-0.00038639800000000004
0.361025,-0.0008567960000000001
0.3621,0.0010863950000000002
0.363174,-0.000391998
0.364249,-0.000587997
0.365323,0.0008679960000000001
0.366398,-0.00037519800000000004
0.36747199999999997,0.000179199
0.368546,0.000291198
0.369621,-0.000498397
0.370695,0.0007951960000000001
0.37177,-0.000251998
0.372844,-0.000677597
0.373919,0.001080795
0.37499299999999997,-0.00039759800000000004
0.37606799999999996,-0.0008567960000000001
0.377142,0.001080795
0.37821699999999997,-0.00037519800000000004
0.379291,-0.000537597
0.380366,0.0008511960000000001
0.38144,-0.000335998
0.382515,0.000274398
0.38358899999999996,0.00030239800000000005
0.384664,-0.00038639800000000004
0.38573799999999997,0.000923995
0.38681299999999996,-0.00023519800000000002
0.387887,-0.0006831970000000001
0.388962,0.001075195
0.390036,-0.00042559800000000007
0.391111,-0.0008903960000000001
0.392185,0.001035995
0.39326,-0.00041999800000000004
0.39433399999999996,-0.000543197
0.39540899999999995,0.000744796
0.396483,-0.000436798
0.397557,0.00021279900000000003
0.398632,0.00012319900000000002
0.399706,-0.0005935970000000001
0.400781,0.0007503960000000001
0.40185499999999996,-0.000414398
0.40292999999999995,-0.0008567960000000001
0.404004,0.0009295950000000001
0.40507899999999997,-0.0005711970000000001
0.406153,-0.001041595
0.407228,0.0008791960000000001
0.408302,-0.0005767970000000001
0.409377,-0.000671997
0.41045099999999995,0.000543197
0.411526,-0.000610397
0.41259999999999997,0.00011199900000000001
0.41367499999999996,-6.7199712e-05
0.414749,-0.0007279960000000001
0.41582399999999997,0.0007055960000000001
0.416898,-0.00048159700000000006
0.417973,-0.000873596
0.419047,0.000963195
0.420122,-0.000515197
0.42119599999999996,-0.000963195
0.422271,0.000946395
0.42334499999999997,-0.000503997
0.42441999999999996,-0.000565597
0.425494,0.000582397
0.426568,-0.000520797
0.427643,0.00026879800000000005
0.42871699999999996,0.0
0.429792,-0.000627197
0.43086599999999997,0.000817596
0.43194099999999996,-0.00043119800000000004
0.433015,-0.000845596
0.43409,0.001019195
0.435164,-0.000470397
0.436239,-0.000895996
0.437313,0.001007995
0.438388,-0.000414398
0.43946199999999996,-0.00039759800000000004
0.44053699999999996,0.0006663970000000001
0.441611,-0.00042559800000000007
0.44268599999999997,0.000414398
0.44376,5.0399780000000004e-05
0.444835,-0.0005487970000000001
0.445909,0.0009351950000000001
0.446984,-0.00035279800000000003
0.44805799999999996,-0.0007727960000000001
0.449133,0.0010919950000000001
0.45020699999999997,-0.00040319800000000007
0.45128199999999996,-0.0008231960000000001
0.452356,0.001035995
0.45343,-0.00038079800000000006
0.454505,-0.000330398
0.45557899999999996,0.000643997
0.456654,-0.00042559800000000007
0.45772799999999997,0.00045919700000000006
0.45880299999999996,2.2399902000000004e-05
0.459877,-0.0005487970000000001
0.460952,0.000963195
0.462026,-0.00034719800000000006
0.463101,-0.0007727960000000001
0.464175,0.0011031950000000002
0.46525,-0.00040319800000000007
